# Analysis Created by 'NetAna'.
# AC Node Analysis of file: /home/jim/netana3.0/netana/examples/BalencedTeeNetwork.txt
# Report file created: /home/jim/netana3.0/netana/examples/BalencedTeeNetwork.report 
# Date Created: Sun May 21 19:36:14 2017
#


##### Units = Volts ####

# FrequencyHZ       Magnitude(db)    Phase Angle(deg)
    300.00            -11.6413            -31.5355
    325.00            -11.9613            -33.7562
    350.00            -12.3029            -35.9012
    375.00            -12.6660            -37.9711
    400.00            -13.0505            -39.9667
    425.00            -13.4567            -41.8896
    450.00            -13.8852            -43.7415
    475.00            -14.3365            -45.5246
    500.00            -14.8118            -47.2412
    525.00            -15.3125            -48.8938
    550.00            -15.8403            -50.4848
    575.00            -16.3974            -52.0169
    600.00            -16.9868            -53.4928
    625.00            -17.6117            -54.9149
    650.00            -18.2767            -56.2859
    675.00            -18.9871            -57.6081
    700.00            -19.7498            -58.8841
    725.00            -20.5735            -60.1160
    750.00            -21.4696            -61.3062
    775.00            -22.4531            -62.4567
    800.00            -23.5444            -63.5695
    825.00            -24.7724            -64.6467
    850.00            -26.1791            -65.6899
    875.00            -27.8301            -66.7009
    900.00            -29.8352            -67.6814
    925.00            -32.4001            -68.6329
    950.00            -35.9871            -69.5568
    975.00            -42.0704            -70.4546
   1000.00           -106.0285            -71.3275
   1025.00            -42.2104           +107.8232
   1050.00            -36.2505           +106.9964
   1075.00            -32.7904           +106.1911
   1100.00            -30.3532           +105.4061
   1125.00            -28.4760           +104.6405
   1150.00            -26.9527           +103.8935
   1175.00            -25.6734           +103.1641
   1200.00            -24.5725           +102.4515
   1225.00            -23.6077           +101.7551
   1250.00            -22.7500           +101.0740
   1275.00            -21.9790           +100.4076
   1300.00            -21.2793            +99.7553
   1325.00            -20.6395            +99.1165
   1350.00            -20.0505            +98.4905
   1375.00            -19.5053            +97.8768
   1400.00            -18.9982            +97.2750
   1425.00            -18.5243            +96.6846
   1450.00            -18.0800            +96.1051
   1475.00            -17.6618            +95.5360
   1500.00            -17.2672            +94.9770
   1525.00            -16.8937            +94.4277
   1550.00            -16.5393            +93.8877
   1575.00            -16.2023            +93.3566
   1600.00            -15.8813            +92.8342
   1625.00            -15.5747            +92.3201
   1650.00            -15.2815            +91.8141
   1675.00            -15.0007            +91.3158
   1700.00            -14.7313            +90.8249
   1725.00            -14.4725            +90.3413
   1750.00            -14.2236            +89.8647
   1775.00            -13.9838            +89.3949
   1800.00            -13.7527            +88.9315
   1825.00            -13.5295            +88.4745
   1850.00            -13.3140            +88.0236
   1875.00            -13.1055            +87.5787
   1900.00            -12.9037            +87.1395
   1925.00            -12.7083            +86.7058
   1950.00            -12.5188            +86.2776
   1975.00            -12.3349            +85.8547
